File: reference_lib/Carbonate_2520_Dolomite_01.csv
Wavelength (nm),Reflectance (%)
452,22.13
460,22.7
468,23.63
476,24.47
484,25.64
492,27.51
500,29.04
508,31.5
516,33.73
524,35.32
532,37.03
540,38.68
548,40.17
556,41.93
564,43.2
572,44.28
580,45.21
588,45.61
596,46.13
604,46.66
612,47.58
620,48.25
628,49.42
636,51.11
644,52.54
652,53.97
660,55.46
668,57.46
676,58.53
684,59.36
692,61.2
700,62.4
708,63.84
716,65.32
724,66.41
732,67.54
740,68.76
748,69.95
756,70.7
764,72.11
772,73.29
780,74.28
788,74.94
796,75.87
804,76.8
812,77.47
820,77.97
828,78.28
836,78.63
844,78.25
852,78.31
860,77.92
868,77.85
876,78.03
884,78.04
892,77.97
900,77.88
908,78.44
916,78.63
924,79.11
932,79.4
940,79.77
948,80.45
956,80.67
964,81
972,81.51
980,81.66
988,82.23
996,82.67
1004,83.26
1012,83.78
1020,84.17
1028,84.48
1036,84.78
1044,85.73
1052,86.52
1060,86.74
1068,87.45
1076,87.67
1084,88.83
1092,89.27
1100,89.58
1108,90.62
1116,90.98
1124,91.89
1132,91.87
1140,92.25
1148,91.83
1156,91.35
1164,92.57
1172,92.91
1180,93.55
1188,93.84
1196,93.95
1204,95.3
1212,95.49
1220,95.74
1228,96.08
1236,96.91
1244,97.91
1252,98.45
1260,99.02
1268,99.23
1276,99.31
1284,99.54
1292,99.74
1300,99.5
1308,99.46
1316,98.72
1324,99.1
1332,98.07
1340,97.3
1348,95.99
1356,94.91
1364,93.73
1372,91.29
1380,85.93
1388,80.03
1396,73.96
1404,67.16
1412,59.57
1420,58.75
1428,61.44
1436,64.59
1444,66.85
1452,69.06
1460,70.52
1468,70.65
1476,72.8
1484,76.1
1492,78.45
1500,80.34
1508,81.87
1516,83.64
1524,84.96
1532,86.26
1540,86.93
1548,87.73
1556,88.25
1564,88.97
1572,90
1580,90.54
1588,90.59
1596,90.85
1604,91.12
1612,91.37
1620,91.38
1628,91.47
1636,91.62
1644,91.54
1652,91.53
1660,91.57
1668,91.19
1676,90.74
1684,89.82
1692,88.92
1700,88.35
1708,87.63
1716,87.14
1724,86.55
1732,85.82
1740,85.2
1748,84.96
1756,84.4
1764,83.61
1772,82.78
1780,81.82
1788,80.76
1796,79.91
1804,79.02
1812,78.3
1820,77.39
1828,76.8
1836,75.71
1844,74.02
1852,71.8
1860,69.12
1868,66.3
1876,59.91
1884,50.95
1892,40.29
1900,29.31
1908,22.66
1916,21.89
1924,23.5
1932,27.63
1940,31.99
1948,34.69
1956,36.33
1964,37.55
1972,38.61
1980,39.92
1988,42.31
1996,44.83
2004,47.33
2012,49.45
2020,51.43
2028,53.23
2036,54.86
2044,56.06
2052,57.13
2060,58.13
2068,58.9
2076,59.34
2084,59.73
2092,60.2
2100,60.47
2108,60.5
2116,60.69
2124,60.28
2132,59.97
2140,59.51
2148,58.95
2156,58.48
2164,57.6
2172,56.12
2180,54.31
2188,52.34
2196,49.27
2204,45.07
2212,42.08
2220,39.33
2228,41.62
2236,41.01
2244,38.29
2252,35.12
2260,32.55
2268,30.78
2276,29.54
2284,28.12
2292,26.37
2300,24.54
2308,22.94
2316,21.64
2324,21.1
2332,22.71
2340,26.56
2348,30.28
2356,31.82
2364,31.59
2372,30.63
2380,29.1
2388,27.61
2396,26.44
2404,24.79
2412,23.08
2420,20.95
2428,18.58
2436,16.01
2444,13.41
2452,11.28
2460,9.68
2468,8.06
2476,6.97
2484,5.51
2492,3.15
2500,1.64
2508,0.46
2516,0
2524,0.96
2532,3.29
2540,6.75
2548,9.86
2556,11.41
2560,11.75