File: reference_lib/Carbonate_2520_Dolomite_02.csv
Wavelength (nm),Reflectance (%)
452,37.21
460,38.51
468,39
476,39.46
484,39.56
492,40.09
500,40.25
508,40.31
516,40.65
524,40.83
532,41.51
540,41.68
548,42.06
556,42.29
564,42.48
572,42.36
580,42.23
588,42.85
596,43.2
604,43.47
612,43.73
620,43.9
628,44.11
636,44.19
644,44.3
652,44.38
660,44.57
668,44.58
676,44.4
684,44.58
692,44.66
700,44.6
708,44.74
716,44.72
724,44.65
732,44.43
740,43.93
748,43.86
756,44.67
764,44.97
772,45.12
780,45.11
788,44.78
796,44.12
804,44.17
812,44.67
820,44.79
828,44.8
836,44.65
844,44.39
852,44.22
860,43.96
868,43.68
876,43.58
884,43.72
892,43.36
900,43.42
908,43.47
916,43.3
924,43.1
932,43.05
940,43.13
948,43.22
956,42.93
964,43.02
972,42.77
980,42.96
988,42.8
996,42.85
1004,42.66
1012,42.66
1020,42.47
1028,42.58
1036,42.4
1044,42.56
1052,42.4
1060,42.52
1068,42.43
1076,42.66
1084,42.48
1092,42.65
1100,42.73
1108,42.68
1116,42.72
1124,42.86
1132,42.85
1140,42.85
1148,42.74
1156,42.97
1164,43.03
1172,43.23
1180,42.98
1188,43.18
1196,43.11
1204,43.31
1212,43.37
1220,43.35
1228,43.29
1236,43.47
1244,43.54
1252,43.81
1260,43.65
1268,43.91
1276,44.14
1284,44.18
1292,44.39
1300,44.4
1308,44.63
1316,44.77
1324,44.9
1332,45.03
1340,45.24
1348,45.36
1356,45.47
1364,45.32
1372,45.26
1380,44.98
1388,45.29
1396,45.59
1404,45.62
1412,45.84
1420,45.7
1428,45.88
1436,46.03
1444,46.08
1452,46.43
1460,46.43
1468,46.58
1476,46.76
1484,47.15
1492,47.46
1500,47.75
1508,47.8
1516,48.06
1524,48.33
1532,48.62
1540,48.56
1548,48.72
1556,48.78
1564,48.91
1572,49.11
1580,49.15
1588,49.35
1596,49.59
1604,49.69
1612,50
1620,50.33
1628,50.45
1636,50.59
1644,50.84
1652,51.05
1660,51.16
1668,51.01
1676,50.94
1684,51.01
1692,51.42
1700,51.26
1708,51.38
1716,51.39
1724,51.56
1732,51.36
1740,51.52
1748,51.7
1756,51.77
1764,51.86
1772,51.68
1780,51.65
1788,51.64
1796,51.62
1804,51.63
1812,51.53
1820,51.56
1828,51.41
1836,50.97
1844,50.97
1852,50.87
1860,50.66
1868,50.36
1876,50.21
1884,49.54
1892,48.19
1900,46.87
1908,45.91
1916,45.76
1924,45.32
1932,45.23
1940,45.5
1948,45.7
1956,45.73
1964,45.85
1972,46.03
1980,46.21
1988,46.77
1996,47.31
2004,47.59
2012,47.98
2020,48.53
2028,48.72
2036,49.05
2044,49.25
2052,49.47
2060,49.31
2068,49.38
2076,49.65
2084,49.67
2092,49.75
2100,49.99
2108,50.17
2116,50.28
2124,50.2
2132,50.12
2140,50.34
2148,50.08
2156,50.06
2164,49.98
2172,49.49
2180,49.14
2188,48.87
2196,48.41
2204,48.21
2212,47.61
2220,47.39
2228,46.77
2236,46.35
2244,45.51
2252,44.49
2260,43.63
2268,42.91
2276,42.07
2284,41.79
2292,41.33
2300,40.74
2308,40.07
2316,39.28
2324,39.11
2332,39.88
2340,41.59
2348,43.25
2356,44.29
2364,44.64
2372,44.21
2380,43.92
2388,43.69
2396,43.3
2404,43.01
2412,42.65
2420,41.72
2428,40.75
2436,39.87
2444,38.67
2452,37.56
2460,36.94
2468,36.38
2476,35.83
2484,35.39
2492,34.79
2500,34.19
2508,33.62
2516,33.23
2524,33.73
2532,34.74
2540,36.21
2548,37.85
2556,38.27
2560,38.46