File: reference_lib/Carbonate_2520_Magnesite_01.csv
Wavelength (nm),Reflectance (%)
452,0
460,2.22
468,3.86
476,4.92
484,6.71
492,9.67
500,13.45
508,18.68
516,23.23
524,28.15
532,32.06
540,36.87
548,41.5
556,45.96
564,49.8
572,53.41
580,56.77
588,59.77
596,62.09
604,63.51
612,65.98
620,67.06
628,68.79
636,70.26
644,71
652,72.29
660,73.48
668,75.7
676,76.92
684,79.14
692,80.85
700,82.17
708,83.66
716,85.14
724,86.64
732,87.29
740,87.96
748,88.51
756,89.89
764,90.82
772,92.17
780,92.98
788,93.38
796,94.9
804,95.65
812,96.77
820,97.11
828,97.04
836,97.43
844,96.85
852,95.87
860,94.91
868,94.62
876,94.46
884,94.21
892,93.51
900,92.96
908,93.64
916,93.86
924,94.11
932,93.49
940,93.08
948,94.17
956,94.05
964,94.46
972,95.11
980,94.21
988,94.76
996,94.97
1004,95.03
1012,95.54
1020,95.4
1028,95.82
1036,95.76
1044,96.4
1052,97.5
1060,97.06
1068,97.15
1076,96.48
1084,97.82
1092,97.71
1100,97.88
1108,98.06
1116,98.5
1124,100
1132,98.61
1140,98.82
1148,98.29
1156,97.43
1164,98.91
1172,98.02
1180,98.26
1188,97.46
1196,97.01
1204,98.56
1212,97.75
1220,96.89
1228,96.25
1236,96.21
1244,96.66
1252,97.07
1260,96.39
1268,95.6
1276,95.65
1284,95.81
1292,96.54
1300,95.64
1308,95.71
1316,95.02
1324,95.79
1332,95.25
1340,95.07
1348,94.28
1356,94.53
1364,94.64
1372,95.19
1380,94.07
1388,92.83
1396,92.48
1404,92.31
1412,91.77
1420,91.18
1428,90.42
1436,90.76
1444,90.52
1452,91.78
1460,92.58
1468,91.16
1476,91.85
1484,93.11
1492,93.29
1500,93.06
1508,92.32
1516,93.46
1524,93.82
1532,94.08
1540,93.62
1548,94.21
1556,94.15
1564,94.3
1572,95.08
1580,95.41
1588,95.12
1596,95.08
1604,95.15
1612,95.51
1620,95.57
1628,95.67
1636,95.81
1644,95.68
1652,95.89
1660,96.03
1668,96.11
1676,95.82
1684,95.76
1692,95.6
1700,95.46
1708,95.53
1716,95.72
1724,95.5
1732,95.79
1740,96.12
1748,96.16
1756,96.17
1764,95.84
1772,95.37
1780,95.47
1788,95.44
1796,95.17
1804,95.4
1812,94.59
1820,94.37
1828,94.05
1836,93.46
1844,92.98
1852,93.26
1860,94.63
1868,94.79
1876,95.06
1884,93.37
1892,91.41
1900,87.73
1908,84.06
1916,82.4
1924,81.95
1932,82.88
1940,84.08
1948,84.67
1956,84.36
1964,84.55
1972,84.68
1980,85.37
1988,86.87
1996,88.38
2004,89.01
2012,89.86
2020,90.33
2028,90.68
2036,91.63
2044,92.15
2052,92.26
2060,93.29
2068,93.45
2076,92.64
2084,93.47
2092,94.7
2100,94.24
2108,94.76
2116,95.39
2124,96.54
2132,97.16
2140,97.23
2148,97.65
2156,96.72
2164,96.27
2172,95.42
2180,93.74
2188,93.19
2196,91.48
2204,89.67
2212,87.67
2220,85.52
2228,83.03
2236,79.92
2244,75.95
2252,72.73
2260,70.97
2268,69.78
2276,69.11
2284,69.2
2292,67.71
2300,66.77
2308,67.83
2316,71.2
2324,76.87
2332,83.71
2340,88.72
2348,89.84
2356,90
2364,87.22
2372,86.3
2380,85.43
2388,83.28
2396,81.27
2404,78.41
2412,75.76
2420,72.17
2428,67.01
2436,62.83
2444,58.54
2452,55.83
2460,52.91
2468,51.25
2476,48.68
2484,46.66
2492,44.48
2500,42.34
2508,43.64
2516,47.52
2524,54.86
2532,63.39
2540,72.75
2548,77.48
2556,81.42
2560,78.41