File: reference_lib/Carbonate_Fe_02.csv
Wavelength (nm),Reflectance (%)
448,33.82
456,34.48
464,35.16
472,35.79
480,36.47
488,37.14
496,37.72
504,38.36
512,38.99
520,39.76
528,40.47
536,41.14
544,41.95
552,42.7
560,43.39
568,43.91
576,44.32
584,44.76
592,45.03
600,45.1
608,45.14
616,45.32
624,45.23
632,45.38
640,45.44
648,45.53
656,45.58
664,45.53
672,45.59
680,45.6
688,45.58
696,45.57
704,45.56
712,45.51
720,45.57
728,45.33
736,45.22
744,44.95
752,44.6
760,44.16
768,43.81
776,43.27
784,42.51
792,41.92
800,41.17
808,40.23
816,39.24
824,38.51
832,38.11
840,37.09
848,35.85
856,34.74
864,33.59
872,32.49
880,31.46
888,30.41
896,29.36
904,28.47
912,27.48
920,26.52
928,25.8
936,25.02
944,24.32
952,23.78
960,23.18
968,22.53
976,22.01
984,21.69
992,21.36
1000,21.05
1008,20.73
1016,20.5
1024,20.25
1032,20.1
1040,20.02
1048,19.89
1056,19.79
1064,19.74
1072,19.79
1080,19.81
1088,19.83
1096,19.89
1104,19.91
1112,19.95
1120,19.94
1128,20.03
1136,20.1
1144,20.13
1152,20.11
1160,20.1
1168,20.07
1176,20.15
1184,20.07
1192,20
1200,19.96
1208,19.88
1216,19.82
1224,19.72
1232,19.59
1240,19.66
1248,19.65
1256,19.57
1264,19.47
1272,19.47
1280,19.38
1288,19.33
1296,19.26
1304,19.25
1312,19.36
1320,19.43
1328,19.54
1336,19.62
1344,19.71
1352,19.83
1360,20.01
1368,20.23
1376,20.39
1384,20.56
1392,20.81
1400,21
1408,21.17
1416,21.47
1424,21.79
1432,22.02
1440,22.47
1448,22.94
1456,23.32
1464,23.78
1472,24.19
1480,24.71
1488,25.31
1496,25.83
1504,26.35
1512,26.94
1520,27.46
1528,28.08
1536,28.62
1544,29.19
1552,29.79
1560,30.42
1568,31
1576,31.5
1584,32.1
1592,32.59
1600,33.05
1608,33.61
1616,34.03
1624,34.27
1632,34.43
1640,34.77
1648,35.25
1656,35.71
1664,36.01
1672,36.46
1680,36.85
1688,37.22
1696,37.48
1704,37.68
1712,37.95
1720,38.18
1728,38.44
1736,38.47
1744,38.69
1752,38.92
1760,39.19
1768,39.13
1776,39.38
1784,39.49
1792,39.5
1800,39.63
1808,39.76
1816,39.8
1824,39.83
1832,39.79
1840,39.73
1848,39.63
1856,39.35
1864,39.11
1872,38.63
1880,38.13
1888,37.24
1896,36.13
1904,35.25
1912,34.77
1920,34.39
1928,34.24
1936,34.29
1944,34.32
1952,34.41
1960,34.66
1968,34.87
1976,35.08
1984,35.4
1992,35.77
2000,36.24
2008,36.65
2016,37.03
2024,37.41
2032,37.66
2040,37.86
2048,38.16
2056,38.44
2064,38.62
2072,38.77
2080,38.72
2088,38.7
2096,38.75
2104,38.89
2112,38.75
2120,38.75
2128,38.73
2136,38.67
2144,38.68
2152,38.58
2160,38.39
2168,38.45
2176,38.4
2184,38.29
2192,38.01
2200,37.62
2208,37.15
2216,36.84
2224,36.65
2232,36.26
2240,35.71
2248,34.99
2256,34.05
2264,33
2272,32.08
2280,31.31
2288,30.65
2296,30.02
2304,29.27
2312,28.59
2320,28.19
2328,27.84
2336,27.64
2344,28.24
2352,29.54
2360,31.27
2368,33
2376,34.07
2384,34.37
2392,34.22
2400,33.71
2408,33.18
2416,32.49
2424,31.69
2432,30.81
2440,29.61
2448,28.23
2456,26.88
2464,25.95
2472,25.12
2480,24.59
2488,24.1
2496,23.43
2500,23.06