File: reference_lib/Carbonate_2520_Magnesite_Ni_01.csv
Wavelength (nm),Reflectance (%)
452,50.94
460,54.53
468,56.62
476,58.15
484,60.3
492,63.08
500,66.3
508,68.89
516,71.18
524,72.95
532,74.66
540,76.45
548,77.72
556,79.26
564,80.48
572,81.56
580,82.02
588,82.62
596,82.97
604,82.89
612,82.65
620,81.8
628,81.26
636,80.12
644,79.01
652,76.6
660,75.37
668,73.28
676,70.85
684,71.69
692,71.5
700,70.6
708,70.49
716,69.85
724,68.71
732,67.88
740,67
748,66.36
756,66.43
764,66.93
772,67.63
780,68.63
788,70.35
796,71.74
804,73.79
812,75.93
820,77.93
828,80.17
836,81.64
844,83.6
852,85.84
860,87.91
868,90.18
876,92.56
884,94.39
892,96.12
900,97.26
908,98.51
916,99.39
924,99.79
932,99.85
940,99.77
948,99.73
956,99.14
964,98.53
972,97.73
980,96.73
988,95.84
996,94.7
1004,93.57
1012,92.55
1020,91.34
1028,89.95
1036,88.45
1044,87.46
1052,86.32
1060,84.93
1068,83.59
1076,82.03
1084,81.16
1092,79.85
1100,78.46
1108,77.54
1116,76.15
1124,75.17
1132,73.58
1140,72.71
1148,71.63
1156,70.42
1164,70
1172,69
1180,68.29
1188,67.5
1196,66.81
1204,66.89
1212,66.51
1220,65.89
1228,65.43
1236,65.22
1244,65.2
1252,65.07
1260,64.78
1268,64.56
1276,64.48
1284,64.46
1292,64.91
1300,64.95
1308,64.79
1316,64.46
1324,65.12
1332,65
1340,65.08
1348,64.9
1356,64.88
1364,65.38
1372,65.69
1380,65.4
1388,65.79
1396,65.41
1404,64.65
1412,64.06
1420,64.21
1428,64.51
1436,64.68
1444,65.01
1452,65.4
1460,65.8
1468,65.35
1476,65.52
1484,66.15
1492,66.04
1500,65.87
1508,65.78
1516,66.08
1524,65.98
1532,66.27
1540,66.27
1548,66.63
1556,66.95
1564,67.43
1572,68
1580,68.34
1588,68.51
1596,68.77
1604,69.03
1612,69.18
1620,69.02
1628,69.08
1636,69.14
1644,69.32
1652,69.27
1660,69.22
1668,69.22
1676,68.79
1684,68.28
1692,67.84
1700,67.6
1708,67.34
1716,67.25
1724,67.11
1732,67.08
1740,67.38
1748,67.74
1756,67.76
1764,67.44
1772,66.87
1780,66.18
1788,65.52
1796,64.63
1804,63.5
1812,62.42
1820,61.31
1828,60.46
1836,59.13
1844,57.91
1852,58.23
1860,61.09
1868,62.2
1876,61.15
1884,58.34
1892,54.64
1900,50.61
1908,47.25
1916,44.93
1924,43.11
1932,41.77
1940,40.81
1948,40.09
1956,39.33
1964,38.7
1972,38.17
1980,38.48
1988,39.44
1996,40.03
2004,40.18
2012,40.4
2020,40.62
2028,40.92
2036,41.1
2044,41.21
2052,41.36
2060,41.41
2068,41.57
2076,42
2084,42.27
2092,42.67
2100,43.2
2108,43.24
2116,43.32
2124,43.58
2132,44.06
2140,45.22
2148,46.01
2156,46.28
2164,46.02
2172,45.26
2180,44.38
2188,43.15
2196,41.48
2204,39.08
2212,36.5
2220,34.57
2228,32.01
2236,28.5
2244,24.86
2252,22.45
2260,20.92
2268,19.9
2276,19.14
2284,18.8
2292,17.87
2300,17.22
2308,18.55
2316,20.37
2324,24.19
2332,29.4
2340,34.8
2348,36.57
2356,35.84
2364,33.42
2372,32.35
2380,30.54
2388,28.13
2396,25.17
2404,22.21
2412,19.33
2420,16.54
2428,13.48
2436,10.78
2444,8.24
2452,6.16
2460,4.88
2468,3.81
2476,3.08
2484,1.91
2492,0.68
2500,0.07
2508,0.2
2516,1.62
2524,4.62
2532,9.41
2540,14.8
2548,18.13
2556,19.81
2560,21.11