File: reference_lib/Carbonate_Fe_2520_FeCalcite_Siderite_01.csv
Wavelength (nm),Reflectance (%)
448,49.61
456,51.5
464,52.46
472,53.54
480,54.49
488,55.17
496,55.45
504,55.86
512,56.37
520,56.82
528,57.23
536,57.53
544,57.74
552,58.03
560,58.21
568,58.37
576,58.54
584,58.56
592,58.65
600,58.65
608,58.66
616,58.57
624,58.48
632,58.45
640,58.44
648,58.34
656,58.28
664,58.21
672,58.07
680,57.97
688,57.89
696,57.82
704,57.66
712,57.39
720,57.28
728,57.22
736,57.04
744,56.97
752,56.89
760,56.75
768,56.52
776,56.33
784,56.03
792,55.71
800,55.49
808,55.19
816,54.85
824,54.6
832,54.55
840,54.2
848,53.83
856,53.62
864,53.34
872,52.87
880,52.29
888,51.74
896,51.36
904,50.74
912,50.03
920,49.39
928,48.79
936,48.24
944,47.49
952,46.82
960,46.23
968,45.71
976,45.1
984,44.5
992,44
1000,43.4
1008,42.85
1016,42.36
1024,41.87
1032,41.36
1040,40.93
1048,40.48
1056,40.08
1064,39.71
1072,39.38
1080,39.08
1088,38.89
1096,38.6
1104,38.4
1112,38.25
1120,38.05
1128,37.9
1136,37.83
1144,37.84
1152,37.79
1160,37.72
1168,37.68
1176,37.64
1184,37.6
1192,37.56
1200,37.63
1208,37.55
1216,37.71
1224,37.76
1232,37.71
1240,37.71
1248,37.77
1256,37.69
1264,37.59
1272,37.48
1280,37.42
1288,37.23
1296,37.17
1304,37.19
1312,37.16
1320,37.03
1328,36.94
1336,36.88
1344,36.72
1352,36.53
1360,36.36
1368,36.26
1376,36.15
1384,36.01
1392,35.84
1400,35.72
1408,35.56
1416,35.38
1424,35.34
1432,35.48
1440,35.48
1448,35.41
1456,35.48
1464,35.57
1472,35.7
1480,35.85
1488,36.05
1496,36.08
1504,36.19
1512,36.53
1520,36.7
1528,36.87
1536,37.2
1544,37.55
1552,37.9
1560,38.1
1568,38.44
1576,38.78
1584,39.15
1592,39.51
1600,39.96
1608,40.25
1616,40.53
1624,40.83
1632,40.88
1640,41.07
1648,41.05
1656,41.49
1664,41.6
1672,41.74
1680,41.96
1688,41.96
1696,42.32
1704,42.49
1712,42.57
1720,42.79
1728,42.83
1736,42.7
1744,42.75
1752,43.11
1760,43.24
1768,43.54
1776,43.68
1784,43.91
1792,44.04
1800,43.95
1808,44.07
1816,43.97
1824,43.95
1832,43.62
1840,43.25
1848,43.06
1856,42.68
1864,41.83
1872,40.85
1880,40.84
1888,41.29
1896,40.8
1904,39.99
1912,39.42
1920,38.97
1928,38.98
1936,38.84
1944,38.62
1952,38.61
1960,38.66
1968,38.65
1976,38.49
1984,38.46
1992,38.22
2000,38.66
2008,39.72
2016,40.57
2024,41.27
2032,41.99
2040,42.23
2048,42.4
2056,42.6
2064,42.79
2072,42.89
2080,43.06
2088,43.09
2096,42.83
2104,42.55
2112,42.26
2120,41.96
2128,41.55
2136,40.83
2144,39.78
2152,39.13
2160,39.34
2168,39.83
2176,40.26
2184,40.31
2192,40.13
2200,39.74
2208,39.28
2216,38.57
2224,37.58
2232,36.54
2240,35.16
2248,33.75
2256,32.06
2264,30.62
2272,28.52
2280,26.6
2288,25.05
2296,23.85
2304,22.93
2312,22.02
2320,20.97
2328,19.96
2336,19.3
2344,19.83
2352,22.06
2360,25.65
2368,28.77
2376,30.69
2384,31.96
2392,32.57
2400,32.58
2408,32.42
2416,31.92
2424,30.59
2432,29.09
2440,27.65
2448,26.11
2456,24.3
2464,22.54
2472,21.07
2480,19.93
2488,20.01
2496,20
2500,20.46