File: reference_lib/Carbonate_Fe_01.csv
Wavelength (nm),Reflectance (%)
448,36.92
456,37.26
464,37.68
472,38.38
480,38.63
488,38.94
496,39.19
504,39.35
512,39.57
520,39.99
528,40.25
536,40.8
544,41.09
552,41.56
560,41.76
568,41.85
576,41.94
584,41.98
592,42.13
600,42.07
608,42.16
616,42.14
624,42.18
632,42.29
640,42.21
648,42.29
656,42.19
664,42.45
672,42.4
680,42.3
688,42.55
696,42.47
704,42.34
712,42.25
720,42.28
728,42.02
736,41.85
744,41.66
752,41.37
760,40.95
768,40.42
776,39.95
784,39.3
792,38.61
800,37.92
808,37.13
816,36.81
824,35.89
832,34.78
840,33.65
848,32.48
856,31.29
864,30.31
872,29.31
880,28.4
888,27.51
896,26.68
904,25.98
912,25.21
920,24.49
928,23.86
936,23.25
944,22.71
952,22.24
960,21.8
968,21.35
976,20.96
984,20.63
992,20.36
1000,20.11
1008,19.88
1016,19.67
1024,19.51
1032,19.4
1040,19.3
1048,19.25
1056,19.21
1064,19.2
1072,19.16
1080,19.11
1088,19.07
1096,19.07
1104,19.1
1112,19.09
1120,19.09
1128,19.04
1136,19.02
1144,19.08
1152,19.07
1160,19.06
1168,18.97
1176,18.85
1184,18.78
1192,18.71
1200,18.62
1208,18.54
1216,18.49
1224,18.41
1232,18.34
1240,18.28
1248,18.21
1256,18.12
1264,18.09
1272,18.07
1280,17.96
1288,17.91
1296,17.89
1304,17.89
1312,17.9
1320,17.93
1328,18.02
1336,18.1
1344,18.13
1352,18.23
1360,18.36
1368,18.43
1376,18.57
1384,18.68
1392,18.86
1400,19.01
1408,19.17
1416,19.36
1424,19.55
1432,19.8
1440,20.13
1448,20.42
1456,20.76
1464,21.22
1472,21.7
1480,22.17
1488,22.66
1496,23.14
1504,23.69
1512,24.23
1520,24.71
1528,25.22
1536,25.76
1544,26.32
1552,26.87
1560,27.39
1568,27.9
1576,28.37
1584,28.81
1592,29.22
1600,29.67
1608,30.04
1616,30.41
1624,30.75
1632,31.09
1640,31.34
1648,31.64
1656,31.74
1664,31.88
1672,32.11
1680,32.29
1688,32.48
1696,32.69
1704,32.9
1712,33.05
1720,33.07
1728,33.2
1736,33.24
1744,33.33
1752,33.42
1760,33.4
1768,33.52
1776,33.64
1784,33.65
1792,33.79
1800,33.7
1808,33.7
1816,33.69
1824,33.61
1832,33.64
1840,33.59
1848,33.46
1856,33.32
1864,33.15
1872,32.94
1880,32.63
1888,32.2
1896,31.58
1904,30.95
1912,30.42
1920,30.03
1928,29.86
1936,29.81
1944,29.73
1952,29.71
1960,29.91
1968,29.98
1976,30.02
1984,30.22
1992,30.35
2000,30.59
2008,30.82
2016,31.1
2024,31.21
2032,31.33
2040,31.39
2048,31.4
2056,31.26
2064,31.32
2072,31.25
2080,31.3
2088,31.3
2096,31.27
2104,31.17
2112,31.1
2120,31.1
2128,30.82
2136,30.65
2144,30.57
2152,30.51
2160,30.66
2168,30.57
2176,30.67
2184,30.56
2192,30.49
2200,30.24
2208,29.96
2216,29.69
2224,29.44
2232,29.09
2240,28.57
2248,27.95
2256,27.25
2264,26.52
2272,25.87
2280,25.21
2288,24.72
2296,24.44
2304,23.97
2312,23.52
2320,23.03
2328,22.74
2336,22.78
2344,23.09
2352,23.96
2360,25.17
2368,26.44
2376,27.39
2384,27.62
2392,27.46
2400,27.1
2408,26.8
2416,26.44
2424,25.96
2432,25.2
2440,24.35
2448,23.37
2456,22.35
2464,21.51
2472,20.92
2480,20.47
2488,20.28
2496,19.99
2500,19.66