File: reference_lib/Carbonate_2520_Calcite_01.csv
Wavelength (nm),Reflectance (%)
452,16.65
460,17.19
468,17.67
476,17.89
484,18.32
492,18.72
500,19.34
508,20.07
516,20.74
524,21.32
532,22.03
540,22.91
548,23.85
556,24.73
564,25.62
572,26.49
580,27.22
588,27.79
596,28.49
604,28.94
612,29.42
620,29.75
628,30.3
636,30.66
644,31.07
652,31.56
660,31.81
668,32.26
676,32.72
684,33.11
692,33.51
700,33.79
708,34.15
716,34.57
724,34.88
732,35.33
740,35.58
748,35.9
756,36.2
764,36.48
772,36.71
780,36.89
788,37.12
796,37.16
804,37.3
812,37.31
820,37.25
828,37.13
836,37.02
844,36.93
852,36.83
860,36.84
868,36.66
876,36.58
884,36.67
892,36.49
900,36.61
908,36.76
916,36.68
924,36.61
932,36.69
940,36.93
948,37.09
956,36.93
964,37.11
972,37.09
980,37.53
988,37.46
996,37.66
1004,37.67
1012,37.85
1020,37.9
1028,38.22
1036,38.17
1044,38.55
1052,38.61
1060,38.86
1068,39.13
1076,39.51
1084,39.73
1092,40.06
1100,40.26
1108,40.4
1116,40.71
1124,41.02
1132,41.07
1140,41.46
1148,41.33
1156,41.89
1164,42.01
1172,42.38
1180,42.25
1188,42.54
1196,42.53
1204,42.81
1212,42.87
1220,42.77
1228,42.85
1236,43.11
1244,43.1
1252,43.18
1260,43.19
1268,43.48
1276,43.63
1284,43.58
1292,43.79
1300,43.69
1308,43.9
1316,43.83
1324,43.85
1332,43.87
1340,43.92
1348,44.07
1356,44.03
1364,44
1372,43.87
1380,43.86
1388,43.56
1396,43.33
1404,42.6
1412,42
1420,41.53
1428,41.79
1436,42.33
1444,42.37
1452,42.76
1460,42.67
1468,42.9
1476,43.08
1484,43.32
1492,43.6
1500,43.76
1508,43.83
1516,43.99
1524,44.17
1532,44.31
1540,44.2
1548,44.16
1556,44.29
1564,44.32
1572,44.49
1580,44.5
1588,44.56
1596,44.57
1604,44.55
1612,44.52
1620,44.42
1628,44.48
1636,44.39
1644,44.33
1652,44.31
1660,44.33
1668,44.32
1676,44.22
1684,44.28
1692,44.09
1700,43.96
1708,44.06
1716,43.92
1724,43.71
1732,43.61
1740,43.54
1748,43.48
1756,43.38
1764,43.27
1772,43.15
1780,43.11
1788,43.06
1796,43
1804,42.99
1812,42.89
1820,42.74
1828,42.66
1836,42.7
1844,42.41
1852,42.49
1860,42.16
1868,41.72
1876,40.86
1884,39.66
1892,37.83
1900,34.96
1908,33.06
1916,32.76
1924,33.23
1932,34.07
1940,34.75
1948,35.14
1956,35.43
1964,35.86
1972,36.05
1980,36.51
1988,36.9
1996,37.29
2004,37.78
2012,38.3
2020,38.68
2028,39.14
2036,39.61
2044,39.89
2052,40.08
2060,40.43
2068,40.57
2076,40.73
2084,41.08
2092,41.3
2100,41.57
2108,41.72
2116,41.95
2124,41.99
2132,42.1
2140,42.18
2148,41.99
2156,41.99
2164,41.68
2172,41.34
2180,41.06
2188,40.66
2196,40.13
2204,39.69
2212,39.21
2220,39.08
2228,39.05
2236,38.8
2244,38.47
2252,38.2
2260,37.93
2268,37.86
2276,37.35
2284,36.81
2292,36.32
2300,35.83
2308,35.52
2316,35.07
2324,34.7
2332,34.22
2340,34.18
2348,34.73
2356,35.51
2364,36.2
2372,36.56
2380,36.39
2388,36.39
2396,36.23
2404,35.91
2412,35.48
2420,35.09
2428,34.61
2436,33.94
2444,33.38
2452,32.85
2460,32.31
2468,31.69
2476,31.01
2484,30.41
2492,29.98
2500,29.69
2508,29.43
2516,29.14
2524,28.87
2532,28.54
2540,28.79
2548,29.85
2556,30.85
2560,31.46