File: reference_lib/Carbonate_Fe_2520_FeDolomite_Ankerite_01.csv
PROF_LIB_FeDolomiteAnkerite_Wavelength (nm),PROF_LIB_FeDolomiteAnkerite_Reflectance (%)
452,54.93
460,55.49
468,55.81
476,55.87
484,56.07
492,56.29
500,56.56
508,56.62
516,56.71
524,56.62
532,56.68
540,56.61
548,56.7
556,56.5
564,56.4
572,56.16
580,55.91
588,55.92
596,55.91
604,55.96
612,56
620,55.98
628,55.87
636,55.73
644,55.75
652,55.64
660,55.76
668,55.64
676,55.62
684,55.51
692,55.54
700,55.53
708,55.44
716,55.35
724,55.32
732,55.12
740,54.7
748,54.7
756,54.81
764,54.69
772,54.61
780,54.26
788,54.09
796,53.77
804,53.62
812,53.62
820,53.54
828,53.27
836,52.99
844,52.52
852,52.25
860,51.83
868,51.35
876,51.05
884,50.82
892,50.27
900,50.01
908,49.76
916,49.32
924,48.83
932,48.53
940,48.27
948,48.03
956,47.56
964,47.25
972,46.83
980,46.8
988,46.39
996,46.28
1004,46
1012,45.97
1020,45.63
1028,45.72
1036,45.4
1044,45.66
1052,45.42
1060,45.54
1068,45.53
1076,45.84
1084,45.71
1092,45.78
1100,45.9
1108,45.93
1116,45.98
1124,46.25
1132,46.26
1140,46.31
1148,46.2
1156,46.46
1164,46.45
1172,46.56
1180,46.34
1188,46.49
1196,46.36
1204,46.59
1212,46.6
1220,46.49
1228,46.46
1236,46.55
1244,46.37
1252,46.59
1260,46.44
1268,46.61
1276,46.75
1284,46.66
1292,46.76
1300,46.7
1308,46.96
1316,47.01
1324,47.05
1332,47.21
1340,47.42
1348,47.68
1356,47.72
1364,47.83
1372,47.84
1380,47.9
1388,47.91
1396,47.93
1404,47.79
1412,47.93
1420,47.79
1428,47.96
1436,48.1
1444,48.14
1452,48.53
1460,48.55
1468,48.77
1476,49.09
1484,49.52
1492,49.93
1500,50.32
1508,50.43
1516,50.7
1524,51.12
1532,51.51
1540,51.58
1548,51.83
1556,51.84
1564,52.2
1572,52.48
1580,52.57
1588,52.73
1596,52.9
1604,52.87
1612,53.09
1620,53.22
1628,53.19
1636,53.18
1644,53.46
1652,53.55
1660,53.6
1668,53.49
1676,53.41
1684,53.38
1692,53.56
1700,53.32
1708,53.43
1716,53.4
1724,53.33
1732,53.05
1740,53.15
1748,53.12
1756,53.26
1764,53.33
1772,53.12
1780,53
1788,52.89
1796,52.64
1804,52.6
1812,52.42
1820,52.38
1828,52.2
1836,51.89
1844,51.63
1852,50.99
1860,50.46
1868,50.23
1876,49.72
1884,48.14
1892,45.92
1900,43.8
1908,42.28
1916,41.51
1924,40.85
1932,40.51
1940,40.56
1948,40.8
1956,41.05
1964,41.4
1972,41.73
1980,42.18
1988,43.01
1996,43.7
2004,44.28
2012,45.19
2020,45.8
2028,46.09
2036,46.5
2044,46.9
2052,47.28
2060,47.37
2068,47.69
2076,47.99
2084,48.03
2092,48.15
2100,48.56
2108,48.47
2116,48.4
2124,48.35
2132,48.21
2140,48.27
2148,48.02
2156,48.09
2164,48.06
2172,47.69
2180,47.33
2188,46.91
2196,46.42
2204,45.97
2212,45.05
2220,44.62
2228,43.87
2236,42.93
2244,41.44
2252,39.59
2260,38.14
2268,36.94
2276,36.23
2284,35.68
2292,34.74
2300,33.81
2308,33.12
2316,32.36
2324,32.33
2332,33.71
2340,36.19
2348,39.2
2356,41.24
2364,41.79
2372,41.7
2380,40.98
2388,40.46
2396,39.6
2404,38.78
2412,37.85
2420,36.42
2428,34.78
2436,33.08
2444,31.22
2452,29.57
2460,28.45
2468,27.78
2476,27.1
2484,26.22
2492,25.28
2500,24.74
2508,24.19
2516,24.18
2524,25
2532,26.8
2540,29.14
2548,31.26
2556,32.9
2560,33.87