File: reference_lib/Hydrous-Silica_02.csv
Wavelength (nm),Reflectance (%)
448,91.12
456,92.37
464,93.34
472,94.02
480,94.6
488,95.04
496,95.24
504,95.82
512,96.31
520,96.8
528,97.38
536,97.91
544,98.23
552,98.47
560,98.64
568,98.78
576,98.9
584,99.15
592,99.34
600,99.37
608,99.41
616,99.51
624,99.57
632,99.64
640,99.79
648,99.9
656,99.96
664,99.99
672,99.99
680,99.96
688,99.91
696,99.81
704,99.65
712,99.47
720,99.27
728,99.01
736,98.69
744,98.4
752,98.13
760,97.88
768,97.57
776,97.33
784,97.07
792,96.77
800,96.43
808,96.07
816,95.69
824,95.31
832,94.9
840,94.41
848,94.02
856,93.74
864,93.38
872,92.98
880,92.61
888,92.23
896,91.97
904,91.56
912,90.92
920,90.44
928,90.09
936,89.36
944,88.06
952,86.73
960,85.61
968,84.93
976,84.62
984,84.46
992,84.49
1000,84.5
1008,84.5
1016,84.52
1024,84.57
1032,84.62
1040,84.59
1048,84.48
1056,84.36
1064,84.15
1072,83.88
1080,83.51
1088,83.03
1096,82.51
1104,81.94
1112,81.28
1120,80.45
1128,79.25
1136,77.39
1144,75.09
1152,73.15
1160,72.15
1168,71.75
1176,71.5
1184,71.21
1192,70.92
1200,70.68
1208,70.56
1216,70.42
1224,70.31
1232,70.13
1240,69.9
1248,69.66
1256,69.48
1264,69.21
1272,68.81
1280,68.3
1288,67.64
1296,66.78
1304,65.75
1312,64.49
1320,62.91
1328,61.05
1336,59.14
1344,57.35
1352,55.79
1360,54.18
1368,51.91
1376,48.15
1384,42.87
1392,36.92
1400,31.68
1408,28
1416,25.97
1424,24.91
1432,24.3
1440,23.91
1448,23.65
1456,23.56
1464,23.82
1472,24.46
1480,25.39
1488,26.46
1496,27.6
1504,28.73
1512,29.94
1520,31.21
1528,32.43
1536,33.53
1544,34.53
1552,35.44
1560,36.24
1568,36.94
1576,37.59
1584,38.15
1592,38.6
1600,38.99
1608,39.31
1616,39.55
1624,39.69
1632,39.73
1640,39.78
1648,39.82
1656,39.77
1664,39.7
1672,39.61
1680,39.45
1688,39.18
1696,38.83
1704,38.4
1712,37.94
1720,37.31
1728,36.62
1736,35.81
1744,34.91
1752,33.75
1760,32.63
1768,31.73
1776,31.05
1784,30.45
1792,30.07
1800,29.85
1808,29.74
1816,29.57
1824,29.26
1832,28.73
1840,27.88
1848,26.44
1856,24.16
1864,20.54
1872,15.65
1880,10.23
1888,5.55
1896,2.43
1904,0.93
1912,0.36
1920,0.07
1928,0
1936,0.09
1944,0.27
1952,0.51
1960,0.87
1968,1.26
1976,1.72
1984,2.27
1992,2.85
2000,3.41
2008,3.99
2016,4.58
2024,5.18
2032,5.81
2040,6.44
2048,7.11
2056,7.64
2064,8.16
2072,8.78
2080,9.48
2088,10.15
2096,10.75
2104,11.36
2112,11.92
2120,12.45
2128,12.86
2136,13.17
2144,13.41
2152,13.58
2160,13.6
2168,13.5
2176,13.29
2184,13.02
2192,12.59
2200,12.07
2208,11.62
2216,11.42
2224,11.37
2232,11.36
2240,11.27
2248,11.16
2256,11.09
2264,11.07
2272,11.03
2280,10.97
2288,10.94
2296,10.92
2304,10.87
2312,10.85
2320,10.86
2328,10.91
2336,10.95
2344,11.01
2352,11.02
2360,11.05
2368,11.04
2376,11.06
2384,11.18
2392,11.47
2400,11.84
2408,12.2
2416,12.52
2424,12.85
2432,13.17
2440,13.59
2448,13.89
2456,14.19
2464,14.59
2472,15.16
2480,15.81
2488,16.73
2496,17.78
2500,18.2