File: reference_lib/IronOxide_05.csv
Wavelength (nm),Reflectance (%)
452,4.2
460,4.2
468,4.1
476,4.1
484,4.2
492,4.2
500,4.3
508,4.5
516,4.9
524,5.4
532,6
540,6.8
548,7.7
556,8.7
564,9.7
572,10.5
580,11.1
588,11.4
596,11.6
604,11.5
612,11.5
620,11.4
628,11.3
636,11.2
644,11.1
652,11.1
660,11.1
668,11.2
676,11.4
684,11.6
692,11.8
700,12.1
708,12.5
716,12.9
724,13.3
732,13.6
740,14
748,14.2
756,14.3
764,14.3
772,14.1
780,13.8
788,13.5
796,13.1
804,12.8
812,12.4
820,12
828,11.6
836,11.3
844,11
852,10.7
860,10.5
868,10.3
876,10.2
884,10
892,9.9
900,9.8
908,9.8
916,9.8
924,9.8
932,9.8
940,9.9
948,9.9
956,10
964,10.1
972,10.2
980,10.3
988,10.5
996,10.6
1004,10.8
1012,10.9
1020,11.1
1028,11.3
1036,11.6
1044,11.8
1052,12.1
1060,12.4
1068,12.7
1076,13.1
1084,13.5
1092,13.9
1100,14.4
1108,14.8
1116,15.4
1124,15.9
1132,16.6
1140,17.2
1148,17.9
1156,18.7
1164,19.5
1172,20.3
1180,21.1
1188,22
1196,23
1204,23.9
1212,24.9
1220,25.8
1228,26.8
1236,27.8
1244,28.8
1252,29.8
1260,30.7
1268,31.6
1276,32.5
1284,33.3
1292,34
1300,34.7
1308,35.3
1316,35.8
1324,36.2
1332,36.5
1340,36.7
1348,36.8
1356,36.9
1364,36.8
1372,36.5
1380,35.9
1388,34.7
1396,33.2
1404,31.6
1412,30.3
1420,29.5
1428,29.1
1436,29
1444,29
1452,29.1
1460,29.1
1468,29.3
1476,29.4
1484,29.7
1492,30
1500,30.2
1508,30.4
1516,30.5
1524,30.7
1532,30.7
1540,30.7
1548,30.7
1556,30.6
1564,30.4
1572,30.1
1580,29.8
1588,29.4
1596,29
1604,28.5
1612,28.1
1620,27.6
1628,27.2
1636,26.8
1644,26.4
1652,26.1
1660,25.9
1668,25.7
1676,25.5
1684,25.3
1692,25.2
1700,25.1
1708,24.9
1716,24.7
1724,24.5
1732,24.3
1740,24.1
1748,23.8
1756,23.6
1764,23.5
1772,23.4
1780,23.4
1788,23.3
1796,23.3
1804,23.3
1812,23.3
1820,23.2
1828,23.2
1836,23.2
1844,23
1852,22.8
1860,22.4
1868,21.7
1876,20.4
1884,18.8
1892,17.3
1900,16.6
1908,16.5
1916,16.6
1924,16.7
1932,16.8
1940,16.9
1948,17.1
1956,17.3
1964,17.5
1972,17.8
1980,18
1988,18.2
1996,18.4
2004,18.7
2012,18.9
2020,19.2
2028,19.5
2036,19.7
2044,19.8
2052,19.9
2060,20
2068,20.1
2076,20.2
2084,20.3
2092,20.3
2100,20.3
2108,20.3
2116,20.3
2124,20.2
2132,20.1
2140,20
2148,19.8
2156,19.6
2164,19.3
2172,19
2180,18.7
2188,18.4
2196,18
2204,17.6
2212,17.3
2220,17
2228,16.8
2236,16.5
2244,16.3
2252,16
2260,15.8
2268,15.7
2276,15.6
2284,15.4
2292,15.3
2300,15.3
2308,15.2
2316,15.1
2324,15
2332,14.9
2340,14.7
2348,14.6
2356,14.5
2364,14.3
2372,14.2
2380,14.1
2388,13.9
2396,13.8
2404,13.8
2412,13.7
2420,13.7
2428,13.8
2436,13.9
2444,13.9
2452,14
2460,14
2468,14.2
2476,14.4
2484,14.7
2488,14.8