File: reference_lib/IronOxide_03.csv
Wavelength (nm),Reflectance (%)
448,6.06
456,3.02
464,1.19
472,0.63
480,0.17
488,0.13
496,0.12
504,0.43
512,1.04
520,2.66
528,4.75
536,7.7
544,11.5
552,15.99
560,20.96
568,26.17
576,30.98
584,35.11
592,38.5
600,40.92
608,42.48
616,43.5
624,44.11
632,44.45
640,44.62
648,44.91
656,45.35
664,45.96
672,46.67
680,47.52
688,48.56
696,49.78
704,51.08
712,52.54
720,54.03
728,55.49
736,56.69
744,57.63
752,58.23
760,58.43
768,58.21
776,57.69
784,56.86
792,55.81
800,54.62
808,53.28
816,51.86
824,50.41
832,49
840,47.74
848,46.63
856,45.56
864,44.63
872,43.72
880,42.93
888,42.35
896,42.04
904,41.86
912,41.65
920,41.44
928,41.49
936,41.6
944,41.85
952,42.19
960,42.6
968,43.12
976,43.69
984,44.39
992,45.13
1000,45.87
1008,46.71
1016,47.67
1024,48.67
1032,49.74
1040,50.93
1048,52.23
1056,53.62
1064,55.08
1072,56.62
1080,58.2
1088,59.92
1096,61.75
1104,63.65
1112,65.56
1120,67.6
1128,69.67
1136,71.76
1144,73.86
1152,75.97
1160,78.1
1168,80.17
1176,82.15
1184,84.01
1192,85.72
1200,87.33
1208,88.88
1216,90.36
1224,91.8
1232,93.02
1240,94.12
1248,95.14
1256,96.09
1264,96.78
1272,97.37
1280,97.92
1288,98.34
1296,98.7
1304,99.09
1312,99.45
1320,99.72
1328,99.91
1336,100
1344,99.82
1352,99.52
1360,99.47
1368,99.65
1376,99.62
1384,99.25
1392,98.62
1400,97.63
1408,96.64
1416,96.11
1424,96.07
1432,96.2
1440,96.3
1448,96.34
1456,96.36
1464,96.35
1472,96.42
1480,96.57
1488,96.73
1496,96.81
1504,96.83
1512,96.83
1520,96.82
1528,96.84
1536,96.8
1544,96.76
1552,96.72
1560,96.69
1568,96.59
1576,96.5
1584,96.41
1592,96.24
1600,96.01
1608,95.69
1616,95.39
1624,95.17
1632,95.26
1640,95.22
1648,95.02
1656,94.72
1664,94.42
1672,94.38
1680,94.37
1688,94.23
1696,93.94
1704,93.74
1712,93.59
1720,93.37
1728,93.05
1736,92.68
1744,92.33
1752,92.04
1760,91.85
1768,91.64
1776,91.43
1784,91.25
1792,91.21
1800,91.12
1808,90.99
1816,90.78
1824,90.55
1832,90.25
1840,90.17
1848,90.15
1856,89.87
1864,89.3
1872,88.77
1880,88.16
1888,86.96
1896,84.97
1904,82.86
1912,81.12
1920,80.05
1928,79.45
1936,79.18
1944,79.12
1952,79.32
1960,79.66
1968,79.95
1976,80.27
1984,80.87
1992,81.63
2000,82.24
2008,82.69
2016,83.25
2024,83.79
2032,84.28
2040,84.65
2048,84.97
2056,85.24
2064,85.59
2072,85.91
2080,86.03
2088,86.12
2096,86.23
2104,86.39
2112,86.6
2120,86.95
2128,87.22
2136,87
2144,86.38
2152,85.65
2160,84.88
2168,83.74
2176,82.43
2184,81.01
2192,79.68
2200,78.6
2208,78.04
2216,77.83
2224,77.66
2232,77.35
2240,76.94
2248,76.51
2256,76.11
2264,75.7
2272,75.31
2280,74.85
2288,74.46
2296,74.07
2304,73.57
2312,72.95
2320,72.36
2328,71.85
2336,71.33
2344,70.78
2352,70.32
2360,69.92
2368,69.52
2376,69.08
2384,68.86
2392,68.65
2400,68.36
2408,68.01
2416,67.67
2424,67.36
2432,67.09
2440,66.93
2448,66.77
2456,66.62
2464,66.5
2472,66.56
2480,66.63
2488,66.81
2496,67.07
2500,67.19