File: reference_lib/IronOxide_04.csv
Wavelength (nm),Reflectance (%)
452,8.3
460,8.2
468,8.1
476,8.1
484,8.3
492,8.7
500,9.3
508,10.2
516,11.6
524,13.4
532,15.6
540,18.2
548,21
556,23.6
564,25.9
572,27.6
580,28.6
588,29.1
596,29.3
604,29.2
612,29
620,28.7
628,28.5
636,28.3
644,28.2
652,28.2
660,28.3
668,28.6
676,28.9
684,29.3
692,29.9
700,30.6
708,31.3
716,32
724,32.8
732,33.4
740,34
748,34.4
756,34.6
764,34.6
772,34.4
780,34
788,33.5
796,32.8
804,32.2
812,31.5
820,30.8
828,30.1
836,29.5
844,28.9
852,28.4
860,27.9
868,27.5
876,27.2
884,26.9
892,26.6
900,26.5
908,26.4
916,26.3
924,26.3
932,26.3
940,26.4
948,26.4
956,26.6
964,26.8
972,27
980,27.3
988,27.5
996,27.8
1004,28.1
1012,28.4
1020,28.8
1028,29.1
1036,29.5
1044,30
1052,30.4
1060,30.9
1068,31.5
1076,32
1084,32.6
1092,33.2
1100,33.8
1108,34.4
1116,35.1
1124,35.7
1132,36.4
1140,37.1
1148,37.8
1156,38.4
1164,39
1172,39.6
1180,40.1
1188,40.7
1196,41.2
1204,41.6
1212,42.1
1220,42.5
1228,42.9
1236,43.2
1244,43.5
1252,43.8
1260,44
1268,44.2
1276,44.4
1284,44.5
1292,44.6
1300,44.7
1308,44.8
1316,44.8
1324,44.8
1332,44.8
1340,44.8
1348,44.7
1356,44.6
1364,44.5
1372,44.4
1380,44.3
1388,44.1
1396,44
1404,43.9
1412,43.7
1420,43.5
1428,43.4
1436,43.3
1444,43.2
1452,43.1
1460,43.1
1468,43.1
1476,43.1
1484,43.1
1492,43.1
1500,43.1
1508,43.1
1516,43.1
1524,43.1
1532,43.1
1540,43
1548,43
1556,42.9
1564,42.8
1572,42.7
1580,42.5
1588,42.4
1596,42.2
1604,42.1
1612,41.9
1620,41.7
1628,41.5
1636,41.2
1644,41
1652,40.9
1660,40.8
1668,40.6
1676,40.4
1684,40.3
1692,40.2
1700,40.1
1708,40
1716,39.9
1724,39.7
1732,39.6
1740,39.3
1748,39.1
1756,39
1764,39
1772,38.9
1780,38.8
1788,38.7
1796,38.6
1804,38.6
1812,38.4
1820,38.3
1828,38.3
1836,38.3
1844,38.2
1852,38.1
1860,37.8
1868,37.6
1876,37.3
1884,37
1892,36.6
1900,36.2
1908,35.9
1916,35.6
1924,35.4
1932,35.3
1940,35.2
1948,35.2
1956,35.2
1964,35.2
1972,35.2
1980,35.2
1988,35.2
1996,35.3
2004,35.4
2012,35.5
2020,35.6
2028,35.7
2036,35.8
2044,35.8
2052,35.9
2060,35.9
2068,35.9
2076,35.9
2084,35.9
2092,35.9
2100,35.8
2108,35.8
2116,35.7
2124,35.5
2132,35.4
2140,35.3
2148,35.1
2156,34.9
2164,34.7
2172,34.6
2180,34.4
2188,34.2
2196,34
2204,33.8
2212,33.6
2220,33.4
2228,33.2
2236,33.1
2244,32.8
2252,32.6
2260,32.5
2268,32.3
2276,32.2
2284,32
2292,31.9
2300,31.8
2308,31.6
2316,31.4
2324,31.3
2332,31.1
2340,31
2348,30.9
2356,30.8
2364,30.6
2372,30.5
2380,30.3
2388,30.1
2396,29.9
2404,29.8
2412,29.8
2420,29.9
2428,29.9
2436,30
2444,30.1
2452,30.2
2460,30.3
2468,30.3
2476,30.5
2484,30.7
2488,30.8