File: reference_lib/IronOxide_Hematite_01.csv
Wavelength (nm),Reflectance (%)
448,13.8
456,10.9
464,9.16
472,8.6
480,8.49
488,8.31
496,8.36
504,8.33
512,8.43
520,8.44
528,8.65
536,8.89
544,9.23
552,9.66
560,10.14
568,10.7
576,11.29
584,11.93
592,12.48
600,12.93
608,13.27
616,13.53
624,13.69
632,13.84
640,13.98
648,14.11
656,14.26
664,14.43
672,14.66
680,14.96
688,15.27
696,15.63
704,16.01
712,16.44
720,16.87
728,17.32
736,17.73
744,18.04
752,18.27
760,18.42
768,18.43
776,18.33
784,18.18
792,17.96
800,17.72
808,17.45
816,17.13
824,16.83
832,16.53
840,16.25
848,16.01
856,15.83
864,15.69
872,15.57
880,15.45
888,15.4
896,15.38
904,15.41
912,15.5
920,15.61
928,15.7
936,15.81
944,15.99
952,16.17
960,16.37
968,16.59
976,16.82
984,17.02
992,17.25
1000,17.5
1008,17.71
1016,17.89
1024,18.07
1032,18.24
1040,18.41
1048,18.6
1056,18.76
1064,18.91
1072,19.11
1080,19.34
1088,19.53
1096,19.74
1104,19.98
1112,20.2
1120,20.38
1128,20.57
1136,20.79
1144,21
1152,21.19
1160,21.35
1168,21.5
1176,21.63
1184,21.73
1192,21.81
1200,21.91
1208,21.99
1216,22.03
1224,22.07
1232,22.1
1240,22.09
1248,22.07
1256,22.04
1264,22.01
1272,21.98
1280,21.94
1288,21.9
1296,21.86
1304,21.83
1312,21.77
1320,21.7
1328,21.64
1336,21.58
1344,21.51
1352,21.41
1360,21.34
1368,21.29
1376,21.23
1384,21.19
1392,21.12
1400,21.08
1408,21.03
1416,20.97
1424,20.89
1432,20.81
1440,20.78
1448,20.77
1456,20.76
1464,20.73
1472,20.69
1480,20.65
1488,20.63
1496,20.61
1504,20.59
1512,20.58
1520,20.54
1528,20.51
1536,20.49
1544,20.46
1552,20.41
1560,20.37
1568,20.34
1576,20.32
1584,20.3
1592,20.28
1600,20.23
1608,20.17
1616,20.11
1624,20.05
1632,20.03
1640,20
1648,20.01
1656,20
1664,19.94
1672,19.86
1680,19.86
1688,19.87
1696,19.88
1704,19.89
1712,19.91
1720,19.87
1728,19.84
1736,19.83
1744,19.8
1752,19.73
1760,19.68
1768,19.68
1776,19.68
1784,19.67
1792,19.68
1800,19.68
1808,19.69
1816,19.68
1824,19.65
1832,19.59
1840,19.6
1848,19.63
1856,19.62
1864,19.6
1872,19.57
1880,19.53
1888,19.42
1896,19.31
1904,19.18
1912,19.09
1920,18.97
1928,18.87
1936,18.82
1944,18.84
1952,18.89
1960,18.96
1968,19.03
1976,19.08
1984,19.12
1992,19.15
2000,19.19
2008,19.21
2016,19.26
2024,19.3
2032,19.37
2040,19.44
2048,19.53
2056,19.59
2064,19.63
2072,19.67
2080,19.67
2088,19.68
2096,19.69
2104,19.73
2112,19.76
2120,19.81
2128,19.84
2136,19.82
2144,19.76
2152,19.7
2160,19.66
2168,19.58
2176,19.47
2184,19.39
2192,19.34
2200,19.32
2208,19.3
2216,19.3
2224,19.24
2232,19.17
2240,19.14
2248,19.08
2256,19.01
2264,18.96
2272,18.96
2280,18.97
2288,18.95
2296,18.89
2304,18.85
2312,18.82
2320,18.82
2328,18.82
2336,18.81
2344,18.77
2352,18.73
2360,18.71
2368,18.69
2376,18.67
2384,18.65
2392,18.6
2400,18.55
2408,18.51
2416,18.51
2424,18.5
2432,18.5
2440,18.5
2448,18.51
2456,18.51
2464,18.53
2472,18.54
2480,18.56
2488,18.57
2496,18.63
2500,18.66