File: reference_lib/IronOxide_02.csv
Wavelength (nm),Reflectance (%)
448,3.6
456,3.4
464,2.5
472,1.43
480,0.78
488,0.25
496,0
504,0.54
512,1.39
520,2.81
528,5.55
536,9.03
544,12.9
552,16.89
560,20.98
568,24.38
576,27.05
584,29.12
592,30.55
600,31.49
608,32.23
616,32.77
624,33.34
632,33.82
640,34.41
648,35.09
656,36.09
664,37.21
672,38.56
680,40.1
688,41.9
696,43.9
704,45.95
712,48.09
720,50.17
728,52.15
736,54
744,55.5
752,56.7
760,57.45
768,57.72
776,57.55
784,57.05
792,56.32
800,55.24
808,53.97
816,52.63
824,51.37
832,50.11
840,48.98
848,47.97
856,47.04
864,46.16
872,45.41
880,44.81
888,44.37
896,43.99
904,43.77
912,43.68
920,43.64
928,43.71
936,43.89
944,44.24
952,44.61
960,45.11
968,45.7
976,46.35
984,47.04
992,47.78
1000,48.61
1008,49.52
1016,50.52
1024,51.61
1032,52.74
1040,53.95
1048,55.22
1056,56.6
1064,58.04
1072,59.53
1080,61.12
1088,62.82
1096,64.57
1104,66.31
1112,68.06
1120,69.88
1128,71.77
1136,73.66
1144,75.48
1152,77.24
1160,78.89
1168,80.43
1176,81.95
1184,83.45
1192,84.78
1200,86
1208,87.14
1216,88.24
1224,89.2
1232,90.07
1240,90.87
1248,91.55
1256,92.13
1264,92.62
1272,93.07
1280,93.46
1288,93.81
1296,94.1
1304,94.38
1312,94.65
1320,94.91
1328,95.18
1336,95.38
1344,95.45
1352,95.38
1360,95.43
1368,95.51
1376,95.58
1384,95.62
1392,95.7
1400,95.76
1408,95.72
1416,95.69
1424,95.7
1432,95.84
1440,95.9
1448,96.05
1456,96.25
1464,96.58
1472,96.94
1480,97.31
1488,97.49
1496,97.63
1504,97.76
1512,97.96
1520,98.2
1528,98.42
1536,98.53
1544,98.62
1552,98.76
1560,98.87
1568,98.9
1576,98.88
1584,98.88
1592,98.8
1600,98.83
1608,98.83
1616,98.75
1624,98.59
1632,98.41
1640,98.22
1648,98.07
1656,98.25
1664,98.39
1672,98.53
1680,98.39
1688,98.22
1696,98.14
1704,98.19
1712,98.13
1720,98.09
1728,98.09
1736,98.12
1744,98.06
1752,98.07
1760,97.99
1768,97.87
1776,97.77
1784,97.78
1792,97.82
1800,97.82
1808,97.78
1816,97.95
1824,98.07
1832,98.1
1840,98.1
1848,98.29
1856,98.18
1864,97.88
1872,97.37
1880,96.91
1888,96.27
1896,95.4
1904,94.28
1912,93.4
1920,93.13
1928,93.29
1936,93.53
1944,93.77
1952,93.98
1960,94.06
1968,94.29
1976,94.57
1984,94.83
1992,95.04
2000,95.36
2008,95.72
2016,96.11
2024,96.63
2032,97.05
2040,97.5
2048,97.97
2056,98.45
2064,98.67
2072,98.76
2080,98.88
2088,99.06
2096,99.27
2104,99.56
2112,99.96
2120,99.97
2128,99.99
2136,99.98
2144,99.74
2152,99.39
2160,99.08
2168,98.83
2176,98.28
2184,97.69
2192,97.12
2200,96.25
2208,95.61
2216,95.22
2224,95.18
2232,94.72
2240,94.42
2248,93.86
2256,93.15
2264,92.4
2272,91.91
2280,91.58
2288,91.07
2296,90.54
2304,89.88
2312,89.32
2320,88.85
2328,88.69
2336,88.34
2344,88.04
2352,87.55
2360,86.87
2368,86.11
2376,85.51
2384,85.07
2392,84.62
2400,84.2
2408,83.77
2416,83.42
2424,83.21
2432,83.02
2440,82.87
2448,82.72
2456,82.63
2464,82.66
2472,82.79
2480,82.88
2484,82.89