File: example_ref_library/Hydrous-Silica_01.csv
Wavelength (nm),Reflectance (%)
448,50.41
456,50.79
464,50.92
472,51.33
480,51.74
488,52.01
496,52.07
504,52.14
512,52.12
520,51.96
528,51.74
536,51.55
544,51.27
552,51.02
560,50.69
568,50.29
576,50.15
584,50.01
592,49.75
600,49.61
608,49.42
616,49.3
624,49.27
632,49.16
640,49.06
648,48.96
656,48.88
664,48.76
672,48.6
680,48.46
688,48.39
696,48.3
704,48.15
712,47.99
720,47.94
728,48.08
736,47.98
744,47.88
752,47.84
760,47.82
768,47.68
776,47.63
784,47.61
792,47.42
800,47.31
808,47.23
816,47.2
824,46.87
832,46.45
840,46.16
848,45.71
856,45.29
864,44.95
872,44.51
880,44.25
888,44.16
896,43.98
904,43.9
912,43.85
920,43.87
928,43.9
936,43.87
944,43.92
952,43.86
960,43.8
968,43.76
976,43.69
984,43.59
992,43.51
1000,43.42
1008,43.26
1016,43.16
1024,42.97
1032,42.82
1040,42.75
1048,42.64
1056,42.55
1064,42.38
1072,42.3
1080,42.19
1088,42.14
1096,42.07
1104,42
1112,41.92
1120,41.93
1128,41.97
1136,41.95
1144,41.92
1152,41.91
1160,42
1168,42.05
1176,42.06
1184,42.13
1192,42.2
1200,42.24
1208,42.28
1216,42.32
1224,42.36
1232,42.42
1240,42.56
1248,42.58
1256,42.65
1264,42.7
1272,42.73
1280,42.79
1288,42.77
1296,42.85
1304,42.88
1312,42.94
1320,42.94
1328,42.95
1336,42.89
1344,42.84
1352,42.82
1360,42.82
1368,42.75
1376,42.67
1384,42.44
1392,41.9
1400,41.1
1408,40.46
1416,40.41
1424,40.51
1432,40.31
1440,40.16
1448,40.09
1456,40.06
1464,40.04
1472,40.17
1480,40.31
1488,40.43
1496,40.61
1504,40.76
1512,40.8
1520,40.81
1528,40.8
1536,40.9
1544,41.03
1552,41.13
1560,41.15
1568,41.21
1576,41.26
1584,41.22
1592,41.22
1600,41.2
1608,41.19
1616,41.2
1624,41.28
1632,41.31
1640,41.31
1648,41.25
1656,41.23
1664,41.26
1672,41.25
1680,41.28
1688,41.22
1696,41
1704,40.84
1712,40.64
1720,40.44
1728,40.31
1736,40.27
1744,40.19
1752,40.04
1760,39.93
1768,39.91
1776,39.88
1784,39.77
1792,39.59
1800,39.45
1808,39.31
1816,39.19
1824,39.12
1832,38.95
1840,38.72
1848,38.63
1856,38.39
1864,37.93
1872,37.17
1880,36.26
1888,35.04
1896,33.33
1904,31.65
1912,30.41
1920,29.54
1928,28.87
1936,28.61
1944,28.62
1952,28.66
1960,28.84
1968,29.21
1976,29.61
1984,30.03
1992,30.48
2000,30.92
2008,31.51
2016,32.01
2024,32.44
2032,32.79
2040,33.15
2048,33.56
2056,33.73
2064,33.89
2072,34.02
2080,34.18
2088,34.4
2096,34.43
2104,34.48
2112,34.5
2120,34.49
2128,34.44
2136,34.42
2144,34.26
2152,34
2160,33.82
2168,33.72
2176,33.61
2184,33.4
2192,33.21
2200,33.03
2208,32.8
2216,32.61
2224,32.39
2232,32.16
2240,31.86
2248,31.48
2256,31.11
2264,30.8
2272,30.62
2280,30.23
2288,29.74
2296,29.39
2304,28.95
2312,28.42
2320,27.9
2328,27.23
2336,26.64
2344,26.67
2352,27.19
2360,27.81
2368,28.39
2376,28.54
2384,28.57
2392,28.41
2400,28.29
2408,28.13
2416,27.72
2424,27.26
2432,26.81
2440,26.49
2448,26.25
2456,25.83
2464,25.24
2472,24.5
2480,23.89
2488,23.5
2496,23.62
2500,23.67