File: example_ref_library/IronOxide_01.csv
Wavelength (nm),Reflectance (%)
448,19.93
456,19.99
464,19.9
472,20
480,20.21
488,20.49
496,20.79
504,21.17
512,21.64
520,22.27
528,22.94
536,23.73
544,24.52
552,25.4
560,26.37
568,27.28
576,28.14
584,28.89
592,29.42
600,29.84
608,30.12
616,30.3
624,30.46
632,30.52
640,30.72
648,30.74
656,30.81
664,31.06
672,31.26
680,31.47
688,31.68
696,31.86
704,32.16
712,32.43
720,32.66
728,32.95
736,33.09
744,33.15
752,33.22
760,33.2
768,33.05
776,32.86
784,32.64
792,32.35
800,32.03
808,31.74
816,31.43
824,31.2
832,31.14
840,30.79
848,30.52
856,30.09
864,29.77
872,29.54
880,29.36
888,29.11
896,28.89
904,28.66
912,28.58
920,28.57
928,28.49
936,28.36
944,28.34
952,28.31
960,28.31
968,28.27
976,28.36
984,28.35
992,28.36
1000,28.53
1008,28.62
1016,28.8
1024,28.95
1032,29.07
1040,29.28
1048,29.43
1056,29.7
1064,29.9
1072,30.13
1080,30.46
1088,30.74
1096,31.02
1104,31.38
1112,31.79
1120,32.18
1128,32.6
1136,33.04
1144,33.52
1152,33.95
1160,34.4
1168,34.85
1176,35.27
1184,35.74
1192,36.16
1200,36.62
1208,36.97
1216,37.4
1224,37.79
1232,38.08
1240,38.32
1248,38.61
1256,38.86
1264,39.06
1272,39.08
1280,39.17
1288,39.42
1296,39.68
1304,39.9
1312,40.07
1320,40.24
1328,40.32
1336,40.34
1344,40.4
1352,40.39
1360,40.35
1368,40.38
1376,40.44
1384,40.23
1392,39.71
1400,38.93
1408,38.45
1416,38.51
1424,38.87
1432,39.04
1440,39.16
1448,39.28
1456,39.3
1464,39.5
1472,39.68
1480,39.83
1488,40
1496,40.15
1504,40.33
1512,40.55
1520,40.59
1528,40.75
1536,40.78
1544,40.75
1552,40.82
1560,40.79
1568,40.75
1576,40.64
1584,40.49
1592,40.4
1600,40.35
1608,40.19
1616,40.1
1624,40.01
1632,39.96
1640,39.86
1648,39.81
1656,39.75
1664,39.72
1672,39.68
1680,39.64
1688,39.61
1696,39.51
1704,39.53
1712,39.54
1720,39.56
1728,39.47
1736,39.29
1744,39.19
1752,39.12
1760,39.11
1768,39.02
1776,38.97
1784,38.81
1792,38.79
1800,38.83
1808,38.85
1816,38.87
1824,38.81
1832,38.7
1840,38.58
1848,38.55
1856,38.34
1864,37.97
1872,37.38
1880,36.4
1888,35.05
1896,33.77
1904,32.73
1912,32.04
1920,31.8
1928,31.62
1936,31.51
1944,31.66
1952,31.85
1960,32.06
1968,32.31
1976,32.61
1984,32.91
1992,33.22
2000,33.53
2008,33.88
2016,34.21
2024,34.59
2032,34.97
2040,35.33
2048,35.56
2056,35.72
2064,35.88
2072,36.12
2080,36.28
2088,36.37
2096,36.41
2104,36.38
2112,36.43
2120,36.52
2128,36.52
2136,36.5
2144,36.34
2152,36.06
2160,35.81
2168,35.37
2176,34.73
2184,34.03
2192,33.37
2200,33.16
2208,33.21
2216,33.46
2224,33.61
2232,33.63
2240,33.45
2248,33.23
2256,32.94
2264,32.65
2272,32.38
2280,32.1
2288,31.72
2296,31.31
2304,30.85
2312,30.44
2320,30.11
2328,29.78
2336,29.61
2344,29.61
2352,29.58
2360,29.57
2368,29.49
2376,29.27
2384,29.09
2392,28.88
2400,28.65
2408,28.42
2416,28.15
2424,27.87
2432,27.62
2440,27.48
2448,27.45
2456,27.36
2464,27.4
2472,27.4
2480,27.5
2488,27.59
2496,27.62
2500,27.71